File: Tensile Test Project/Tensile Test Data GNP 4.csv
Time,Force,Displacement,Stress,Strain
0,0,0.0004,0.0048,0.0009
0.4,0.0001,0.0306,0.015,0.0691
0.8,0.0002,0.0667,0.0253,0.1505
1.2,0.0003,0.1002,0.0357,0.2262
1.6,0.0004,0.1333,0.0436,0.301
2,0.0004,0.1671,0.0542,0.3772
2.4,0.0005,0.2004,0.0615,0.4524
2.8,0.0006,0.234,0.0708,0.5281
3.2,0.0006,0.2675,0.0781,0.6038
3.6,0.0007,0.3,0.0864,0.6772
4,0.0008,0.3331,0.0934,0.752
4.4,0.0008,0.3667,0.1012,0.8277
4.8,0.0009,0.4006,0.1091,0.9043
5.2,0.0009,0.4346,0.1155,0.981
5.6,0.001,0.4675,0.1238,1.0553
6,0.0011,0.4998,0.129,1.1282
6.4,0.0011,0.5331,0.1369,1.2034
6.8,0.0012,0.5671,0.1427,1.2801
7.2,0.0012,0.6008,0.1501,1.3563
7.6,0.0013,0.6344,0.156,1.432
8,0.0013,0.6671,0.1625,1.5058
8.4,0.0014,0.6998,0.1682,1.5797
8.8,0.0014,0.7333,0.1751,1.6554
9.2,0.0015,0.7671,0.1813,1.7316
9.6,0.0015,0.8006,0.1862,1.8073
10,0.0016,0.834,0.1935,1.8825
10.4,0.0016,0.8671,0.198,1.9573
10.8,0.0017,0.9002,0.204,2.0321
11.2,0.0017,0.9335,0.209,2.1073
11.6,0.0018,0.9671,0.2151,2.183
12,0.0018,1.0004,0.2201,2.2583
12.4,0.0018,1.0335,0.2259,2.3331
12.8,0.0019,1.0675,0.2309,2.4097
13.2,0.0019,1.1006,0.236,2.4845
13.6,0.002,1.1333,0.2415,2.5583
14,0.002,1.1665,0.2454,2.6331
14.4,0.0021,1.2,0.2517,2.7088
14.8,0.0021,1.234,0.2556,2.7855
15.2,0.0021,1.2677,0.2613,2.8616
15.6,0.0022,1.3008,0.2653,2.9364
16,0.0022,1.3331,0.2701,3.0093
16.4,0.0022,1.3665,0.2737,3.0846
16.8,0.0023,1.4004,0.279,3.1612
17.2,0.0023,1.434,0.2833,3.2369
17.6,0.0023,1.4677,0.2873,3.3131
18,0.0024,1.5006,0.2927,3.3874
18.4,0.0024,1.5331,0.2947,3.4608
18.8,0.0025,1.5667,0.3002,3.5365
19.2,0.0025,1.6004,0.3029,3.6127
19.6,0.0025,1.634,0.3082,3.6884
20,0.0025,1.6673,0.3109,3.7636
20.4,0.0026,1.7006,0.3155,3.8389
20.8,0.0026,1.7337,0.3191,3.9137
21.2,0.0026,1.7667,0.3227,3.988
21.6,0.0027,1.8002,0.3263,4.0637
22,0.0027,1.8337,0.3296,4.1394
22.4,0.0027,1.8673,0.3343,4.2151
22.8,0.0027,1.9008,0.3361,4.2908
23.2,0.0028,1.934,0.3408,4.3656
23.6,0.0028,1.9667,0.343,4.4394
24,0.0028,2,0.3469,4.5147
24.4,0.0029,2.0333,0.3494,4.5899
24.8,0.0029,2.0675,0.354,4.667
25.2,0.0029,2.1008,0.356,4.7423
25.6,0.0029,2.134,0.3595,4.8171
26,0.003,2.1667,0.3623,4.8909
26.4,0.003,2.1998,0.365,4.9657
26.8,0.003,2.2337,0.3691,5.0423
27.2,0.003,2.2675,0.3708,5.1185
27.6,0.0031,2.301,0.3751,5.1942
28,0.0031,2.334,0.3766,5.2685
28.4,0.0031,2.3667,0.3805,5.3424
28.8,0.0031,2.4,0.3822,5.4176
29.2,0.0032,2.4337,0.3862,5.4938
29.6,0.0032,2.4671,0.3886,5.569
30,0.0032,2.5006,0.3916,5.6448
30.4,0.0032,2.534,0.3943,5.72
30.8,0.0032,2.5669,0.3962,5.7943
31.2,0.0033,2.6,0.3994,5.8691
31.6,0.0033,2.6335,0.4011,5.9448
32,0.0033,2.6671,0.4047,6.0205
32.4,0.0033,2.7004,0.4063,6.0957
32.8,0.0034,2.7342,0.4101,6.1719
33.2,0.0034,2.7673,0.4108,6.2467
33.6,0.0034,2.8,0.4146,6.3205
34,0.0034,2.8333,0.4163,6.3958
34.4,0.0034,2.8669,0.4184,6.4715
34.8,0.0034,2.9006,0.4216,6.5477
35.2,0.0035,2.9344,0.4229,6.6239
35.6,0.0035,2.9673,0.4263,6.6982
36,0.0035,3,0.4271,6.772
36.4,0.0035,3.0331,0.4302,6.8468
36.8,0.0035,3.0671,0.4312,6.9234
37.2,0.0036,3.1008,0.4348,6.9996
37.6,0.0036,3.1344,0.4361,7.0753
38,0.0036,3.1671,0.4388,7.1492
38.4,0.0036,3.1998,0.4402,7.223
38.8,0.0036,3.2333,0.4422,7.2987
39.2,0.0036,3.2671,0.4452,7.3749
39.6,0.0037,3.3006,0.4467,7.4506
40,0.0037,3.334,0.4494,7.5259
40.4,0.0037,3.3671,0.4501,7.6006
40.8,0.0037,3.4002,0.4531,7.6754
41.2,0.0037,3.4333,0.4533,7.7502
41.6,0.0037,3.4669,0.4574,7.8259
42,0.0037,3.5004,0.458,7.9016
42.4,0.0038,3.534,0.4604,7.9773
42.8,0.0038,3.5675,0.4627,8.053
43.2,0.0038,3.6006,0.464,8.1278
43.6,0.0038,3.6333,0.4659,8.2017
44,0.0038,3.6667,0.4669,8.2769
44.4,0.0038,3.7,0.4695,8.3521
44.8,0.0038,3.734,0.4706,8.4288
45.2,0.0039,3.7677,0.4741,8.505
45.6,0.0039,3.8006,0.4738,8.5793
46,0.0039,3.8331,0.4771,8.6527
46.4,0.0039,3.8662,0.4776,8.7274
46.8,0.0039,3.9004,0.4799,8.8046
47.2,0.0039,3.9342,0.4818,8.8807
47.6,0.004,3.9677,0.4835,8.9565
48,0.004,4.0004,0.4846,9.0303
48.4,0.004,4.0333,0.4858,9.1046
48.8,0.004,4.0667,0.4884,9.1798
49.2,0.004,4.1004,0.4894,9.256
49.6,0.004,4.134,0.4928,9.3317
50,0.004,4.1675,0.4924,9.4074
50.4,0.0041,4.2004,0.4954,9.4818
50.8,0.0041,4.2337,0.4958,9.557
51.2,0.0041,4.2667,0.4984,9.6313
51.6,0.0041,4.3002,0.4994,9.707
52,0.0041,4.3335,0.5018,9.7823
52.4,0.0041,4.3671,0.5029,9.858
52.8,0.0041,4.4008,0.5049,9.9342
53.2,0.0041,4.434,0.5067,10.0089
53.6,0.0041,4.4667,0.507,10.0828
54,0.0042,4.5,0.5097,10.158
54.4,0.0042,4.5331,0.51,10.2328
54.8,0.0042,4.5673,0.5129,10.3099
55.2,0.0042,4.601,0.514,10.3861
55.6,0.0042,4.634,0.5162,10.4604
56,0.0042,4.6665,0.5159,10.5338
56.4,0.0042,4.6998,0.5188,10.609
56.8,0.0042,4.7337,0.5197,10.6857
57.2,0.0043,4.7675,0.5223,10.7618
57.6,0.0043,4.801,0.5236,10.8376
58,0.0043,4.834,0.5248,10.9119
58.4,0.0043,4.8667,0.5262,10.9857
58.8,0.0043,4.9,0.5276,11.0609
59.2,0.0043,4.9335,0.5297,11.1367
59.6,0.0043,4.9673,0.5309,11.2128
60,0.0044,5.0006,0.533,11.2881
60.4,0.0044,5.034,0.5335,11.3633
60.8,0.0044,5.0669,0.5365,11.4376
61.2,0.0044,5.1,0.5361,11.5124
61.6,0.0044,5.1335,0.539,11.5881
62,0.0044,5.1669,0.5401,11.6634
62.4,0.0044,5.2006,0.5419,11.7396
62.8,0.0044,5.2342,0.5428,11.8153
63.2,0.0045,5.2673,0.5444,11.89
63.6,0.0045,5.3,0.5455,11.9639
64,0.0045,5.3333,0.5468,12.0391
64.4,0.0045,5.3667,0.549,12.1144
64.8,0.0045,5.4006,0.5497,12.191
65.2,0.0045,5.4344,0.5523,12.2672
65.6,0.0045,5.4675,0.5524,12.342
66,0.0045,5.5,0.5542,12.4153
66.4,0.0045,5.5331,0.5545,12.4901
66.8,0.0046,5.5671,0.5569,12.5668
67.2,0.0046,5.6008,0.5577,12.643
67.6,0.0046,5.6344,0.5607,12.7187
68,0.0046,5.6673,0.5605,12.793
68.4,0.0046,5.6998,0.562,12.8663
68.8,0.0046,5.7331,0.5632,12.9416
69.2,0.0046,5.7671,0.5648,13.0182
69.6,0.0046,5.8006,0.5667,13.094
70,0.0046,5.834,0.568,13.1692
70.4,0.0047,5.8671,0.5696,13.244
70.8,0.0047,5.9002,0.5695,13.3188
71.2,0.0047,5.9333,0.5717,13.3935
71.6,0.0047,5.9667,0.572,13.4688
72,0.0047,6.0002,0.5747,13.5445
72.4,0.0047,6.034,0.575,13.6207
72.8,0.0047,6.0675,0.5774,13.6964
73.2,0.0047,6.1006,0.5779,13.7712
73.6,0.0047,6.1333,0.5794,13.845
74,0.0047,6.1665,0.5801,13.9198
74.4,0.0048,6.2,0.5815,13.9955
74.8,0.0048,6.234,0.5834,14.0721
75.2,0.0048,6.2677,0.5843,14.1483
75.6,0.0048,6.3006,0.5866,14.2226
76,0.0048,6.3331,0.5862,14.296
76.4,0.0048,6.3665,0.5886,14.3712
76.8,0.0048,6.4004,0.5891,14.4479
77.2,0.0048,6.4342,0.5921,14.5241
77.6,0.0048,6.4677,0.5919,14.5998
78,0.0049,6.5006,0.5946,14.6741
78.4,0.0049,6.5331,0.5939,14.7475
78.8,0.0049,6.5667,0.5963,14.8232
79.2,0.0049,6.6004,0.5975,14.8994
79.6,0.0049,6.634,0.599,14.9751
80,0.0049,6.6673,0.5999,15.0503
80.4,0.0049,6.7004,0.6013,15.1251
80.8,0.0049,6.7337,0.6026,15.2003
81.2,0.0049,6.7667,0.6035,15.2746
81.6,0.0049,6.8,0.6053,15.3499
82,0.005,6.8335,0.6055,15.4256
82.4,0.005,6.8673,0.6081,15.5018
82.8,0.005,6.9008,0.6084,15.5775
83.2,0.005,6.934,0.6108,15.6523
83.6,0.005,6.9665,0.6109,15.7256
84,0.005,7,0.6128,15.8014
84.4,0.005,7.0333,0.6128,15.8766
84.8,0.005,7.0673,0.6157,15.9533
85.2,0.005,7.101,0.6161,16.0294
85.6,0.0051,7.134,0.6178,16.1037
86,0.0051,7.1665,0.6182,16.1771
86.4,0.0051,7.2,0.6192,16.2528
86.8,0.0051,7.2337,0.6209,16.329
87.2,0.0051,7.2675,0.622,16.4052
87.6,0.0051,7.301,0.6237,16.4809
88,0.0051,7.334,0.6243,16.5552
88.4,0.0051,7.3665,0.6253,16.6286
88.8,0.0051,7.4,0.6254,16.7043
89.2,0.0051,7.4337,0.6278,16.7805
89.6,0.0051,7.4673,0.6281,16.8562
90,0.0052,7.5006,0.6306,16.9314
90.4,0.0051,7.534,0.6296,17.0067
90.8,0.0052,7.5671,0.6323,17.0814
91.2,0.0052,7.6,0.6321,17.1558
91.6,0.0052,7.6335,0.6311,17.2315
92,0.0052,7.6669,0.6348,17.3067
92.4,0.0052,7.7004,0.6369,17.3824
92.8,0.0052,7.7342,0.638,17.4586
93.2,0.0052,7.7673,0.6379,17.5334
93.6,0.0052,7.8,0.6387,17.6072
94,0.0052,7.8333,0.6387,17.6825
94.4,0.0052,7.8667,0.6418,17.7577
94.8,0.0053,7.9006,0.6422,17.8344
95.2,0.0053,7.9344,0.6454,17.9106
95.6,0.0053,7.9675,0.6436,17.9853
96,0.0053,7.9998,0.6441,18.0582
96.4,0.0053,8.0331,0.6438,18.1335
96.8,0.0053,8.0671,0.6459,18.2101
97.2,0.0053,8.1008,0.6476,18.2863
97.6,0.0053,8.1344,0.6482,18.362
98,0.0053,8.1673,0.6487,18.4363
98.4,0.0053,8.1998,0.6478,18.5097
98.8,0.0053,8.2333,0.6491,18.5854
99.2,0.0053,8.2671,0.6489,18.6616
99.6,0.0053,8.3004,0.6511,18.7368
100,0.0053,8.334,0.65,18.8125
100.4,0.0053,8.3671,0.6517,18.8873
100.8,0.0053,8.4004,0.6515,18.9626
101.2,0.0053,8.4333,0.6521,19.0369
101.6,0.0053,8.4669,0.652,19.1126
102,0.0053,8.5004,0.6529,19.1883
102.4,0.0053,8.5337,0.6528,19.2635
102.8,0.0053,8.5675,0.653,19.3397
103.2,0.0053,8.6006,0.6531,19.4145
103.6,0.0053,8.6333,0.6515,19.4883
104,0.0053,8.6665,0.652,19.5631
104.4,0.0053,8.7,0.65,19.6388
104.8,0.0053,8.7342,0.6496,19.716
105.2,0.0053,8.7677,0.6464,19.7917
105.6,0.0053,8.8008,0.6439,19.8664
106,0.0052,8.8331,0.6345,19.9393
106.4,0.0039,8.8662,0.4715,20.0141
106.8,0,8.9004,-0.0001,20.0912
107.2,0,8.9342,0.0005,20.1674
107.6,0,8.9679,0.001,20.2436
108,0,9.0004,0.0007,20.317
108.4,0,9.0331,0.0005,20.3908
108.78,0,9.065,0.0004,20.4628