File: Tensile Test Project/Tensile Test Data GNP 9_1.csv
Time,Force,Displacement,Stress,Strain
0,0,0.0004,0.0011,0.0009
0.35,0.0001,0.0258,0.0083,0.0587
0.7,0.0001,0.0583,0.0156,0.1326
1.05,0.0002,0.0883,0.0218,0.2008
1.4,0.0002,0.1167,0.0284,0.2652
1.75,0.0003,0.1456,0.0355,0.331
2.1,0.0003,0.1758,0.0412,0.3996
2.45,0.0004,0.205,0.0474,0.4659
2.8,0.0004,0.2333,0.0533,0.5303
3.15,0.0005,0.2627,0.0586,0.5971
3.5,0.0005,0.2927,0.065,0.6652
3.85,0.0006,0.321,0.0701,0.7296
4.2,0.0006,0.3498,0.0753,0.795
4.55,0.0007,0.3798,0.08,0.8632
4.9,0.0007,0.4094,0.0864,0.9304
5.25,0.0008,0.4375,0.0902,0.9943
5.6,0.0008,0.4669,0.0946,1.0611
5.95,0.0008,0.4967,0.0996,1.1288
6.3,0.0009,0.5252,0.1046,1.1937
6.65,0.0009,0.5542,0.1076,1.2595
7,0.0009,0.584,0.1126,1.3272
7.35,0.001,0.6133,0.1173,1.3939
7.7,0.001,0.6421,0.1208,1.4593
8.05,0.001,0.6712,0.1245,1.5256
8.4,0.0011,0.7004,0.1298,1.5919
8.75,0.0011,0.7294,0.1336,1.6577
9.1,0.0011,0.7585,0.1366,1.724
9.45,0.0012,0.7877,0.1414,1.7902
9.8,0.0012,0.8169,0.1452,1.8565
10.15,0.0012,0.8462,0.1486,1.9233
10.5,0.0013,0.8756,0.1521,1.9901
10.85,0.0013,0.9042,0.1567,2.0549
11.2,0.0013,0.9335,0.1597,2.1217
11.55,0.0014,0.9633,0.1628,2.1894
11.9,0.0014,0.9919,0.167,2.2543
12.25,0.0014,1.0208,0.1712,2.3201
12.6,0.0014,1.0506,0.1738,2.3878
12.95,0.0015,1.0802,0.1778,2.455
13.3,0.0015,1.1083,0.1814,2.5189
13.65,0.0015,1.1373,0.1844,2.5848
14,0.0016,1.1677,0.1872,2.6539
14.35,0.0016,1.1962,0.1911,2.7187
14.7,0.0016,1.2248,0.194,2.7836
15.05,0.0016,1.255,0.1969,2.8523
15.4,0.0017,1.2844,0.2006,2.919
15.75,0.0017,1.3125,0.2039,2.983
16.1,0.0017,1.3419,0.206,3.0497
16.45,0.0017,1.3715,0.209,3.117
16.8,0.0018,1.4006,0.2131,3.1832
17.15,0.0018,1.4294,0.2153,3.2486
17.5,0.0018,1.4587,0.2176,3.3153
17.85,0.0018,1.4883,0.2213,3.3826
18.2,0.0019,1.5171,0.2244,3.4479
18.55,0.0019,1.546,0.226,3.5137
18.9,0.0019,1.5752,0.229,3.58
19.25,0.0019,1.6046,0.2321,3.6468
19.6,0.002,1.6342,0.2348,3.714
19.95,0.002,1.6627,0.2367,3.7789
20.3,0.002,1.6919,0.2397,3.8452
20.65,0.002,1.7215,0.2431,3.9124
21,0.002,1.7504,0.2447,3.9782
21.35,0.0021,1.779,0.2472,4.0431
21.7,0.0021,1.8085,0.2504,4.1103
22.05,0.0021,1.8383,0.2531,4.178
22.4,0.0021,1.8671,0.2549,4.2434
22.75,0.0021,1.8958,0.2581,4.3087
23.1,0.0022,1.9258,0.2606,4.3769
23.45,0.0022,1.955,0.2626,4.4432
23.8,0.0022,1.9831,0.2641,4.5071
24.15,0.0022,2.0125,0.2678,4.5739
24.5,0.0022,2.0425,0.27,4.642
24.85,0.0023,2.0715,0.2719,4.7079
25.2,0.0023,2.0998,0.2744,4.7723
25.55,0.0023,2.1298,0.2769,4.8404
25.9,0.0023,2.1592,0.2786,4.9072
26.25,0.0023,2.1877,0.2808,4.9721
26.6,0.0024,2.2167,0.2841,5.0379
26.95,0.0024,2.2462,0.2854,5.1051
27.3,0.0024,2.2756,0.2878,5.1719
27.65,0.0024,2.3044,0.29,5.2372
28,0.0024,2.3335,0.2925,5.3035
28.35,0.0024,2.3629,0.2937,5.3703
28.7,0.0025,2.3921,0.2965,5.4366
29.05,0.0025,2.421,0.2985,5.5024
29.4,0.0025,2.4502,0.3004,5.5687
29.75,0.0025,2.4796,0.3016,5.6354
30.1,0.0025,2.509,0.3051,5.7022
30.45,0.0026,2.5377,0.3066,5.7675
30.8,0.0026,2.5669,0.3078,5.8338
31.15,0.0026,2.5962,0.3104,5.9006
31.5,0.0026,2.6254,0.3131,5.9669
31.85,0.0026,2.6542,0.3142,6.0322
32.2,0.0026,2.6833,0.3155,6.0985
32.55,0.0027,2.7135,0.3191,6.1671
32.9,0.0027,2.7423,0.3205,6.2325
33.25,0.0027,2.7708,0.3217,6.2973
33.6,0.0027,2.8004,0.3236,6.3646
33.95,0.0027,2.8298,0.3265,6.4313
34.3,0.0027,2.8583,0.3273,6.4962
34.65,0.0027,2.8877,0.3289,6.563
35,0.0028,2.9175,0.3314,6.6307
35.35,0.0028,2.9467,0.3333,6.697
35.7,0.0028,2.975,0.3341,6.7614
36.05,0.0028,3.0048,0.3369,6.8291
36.4,0.0028,3.034,0.339,6.8954
36.75,0.0028,3.0629,0.3398,6.9612
37.1,0.0028,3.0919,0.3416,7.027
37.45,0.0029,3.1212,0.3438,7.0937
37.8,0.0029,3.1506,0.3455,7.1605
38.15,0.0029,3.1796,0.3459,7.2263
38.5,0.0029,3.2085,0.3488,7.2921
38.85,0.0029,3.2375,0.3502,7.358
39.2,0.0029,3.2669,0.3511,7.4247
39.55,0.0029,3.2965,0.3535,7.4919
39.9,0.003,3.3254,0.3556,7.5578
40.25,0.003,3.3546,0.3566,7.6241
40.6,0.003,3.3842,0.358,7.6913
40.95,0.003,3.4127,0.3602,7.7562
41.3,0.003,3.4415,0.3616,7.8215
41.65,0.003,3.4712,0.3625,7.8892
42,0.003,3.501,0.3647,7.9569
42.35,0.0031,3.5294,0.3663,8.0213
42.7,0.0031,3.5581,0.3671,8.0866
43.05,0.0031,3.5885,0.369,8.1558
43.4,0.0031,3.6173,0.3709,8.2211
43.75,0.0031,3.6454,0.3718,8.285
44.1,0.0031,3.6754,0.3729,8.3532
44.45,0.0031,3.705,0.3756,8.4205
44.8,0.0031,3.7335,0.3764,8.4853
45.15,0.0031,3.7625,0.3774,8.5511
45.5,0.0032,3.7923,0.3794,8.6188
45.85,0.0032,3.8217,0.3816,8.6856
46.2,0.0032,3.85,0.3815,8.75
46.55,0.0032,3.8794,0.383,8.8168
46.9,0.0032,3.9092,0.3855,8.8845
47.25,0.0032,3.9381,0.3869,8.9503
47.6,0.0032,3.9667,0.387,9.0151
47.95,0.0032,3.9962,0.3897,9.0824
48.3,0.0033,4.0256,0.3905,9.1491
48.65,0.0033,4.0546,0.3917,9.215
49,0.0033,4.0833,0.393,9.2803
49.35,0.0033,4.1129,0.395,9.3475
49.7,0.0033,4.1423,0.3959,9.4143
50.05,0.0033,4.1715,0.3966,9.4806
50.4,0.0033,4.2002,0.3986,9.5459
50.75,0.0033,4.2296,0.4,9.6127
51.1,0.0033,4.259,0.4005,9.6794
51.45,0.0033,4.2879,0.4015,9.7453
51.8,0.0034,4.3167,0.4034,9.8106
52.15,0.0034,4.3462,0.4045,9.8778
52.5,0.0034,4.376,0.4057,9.9455
52.85,0.0034,4.4044,0.4064,10.0099
53.2,0.0034,4.4333,0.4085,10.0758
53.55,0.0034,4.4635,0.4095,10.1444
53.9,0.0034,4.4923,0.4109,10.2098
54.25,0.0034,4.5204,0.4118,10.2737
54.6,0.0034,4.5506,0.413,10.3423
54.95,0.0034,4.5802,0.4142,10.4096
55.3,0.0035,4.6087,0.4157,10.4744
55.65,0.0035,4.6375,0.4163,10.5398
56,0.0035,4.6673,0.4169,10.6075
56.35,0.0035,4.6965,0.419,10.6738
56.7,0.0035,4.725,0.4201,10.7386
57.05,0.0035,4.7544,0.4208,10.8054
57.4,0.0035,4.784,0.4218,10.8726
57.75,0.0035,4.8133,0.4244,10.9394
58.1,0.0035,4.8421,0.4241,11.0047
58.45,0.0035,4.871,0.4252,11.0705
58.8,0.0036,4.9004,0.4265,11.1373
59.15,0.0036,4.9296,0.4286,11.2036
59.5,0.0036,4.9585,0.428,11.2694
59.85,0.0036,4.9877,0.4294,11.3357
60.2,0.0036,5.0171,0.4312,11.4025
60.55,0.0036,5.0467,0.4323,11.4697
60.9,0.0036,5.075,0.4319,11.5341
61.25,0.0036,5.104,0.434,11.5999
61.6,0.0036,5.134,0.4355,11.6681
61.95,0.0036,5.1631,0.4359,11.7344
62.3,0.0036,5.1915,0.4372,11.7988
62.65,0.0037,5.221,0.4385,11.866
63,0.0037,5.251,0.4392,11.9342
63.35,0.0037,5.2796,0.4402,11.9991
63.7,0.0037,5.3081,0.4415,12.0639
64.05,0.0037,5.3383,0.442,12.1326
64.4,0.0037,5.3675,0.4433,12.1989
64.75,0.0037,5.3958,0.4443,12.2633
65.1,0.0037,5.4254,0.4456,12.3305
65.45,0.0037,5.4552,0.4458,12.3982
65.8,0.0037,5.484,0.448,12.4635
66.15,0.0037,5.5123,0.4481,12.5279
66.5,0.0037,5.5421,0.4488,12.5956
66.85,0.0037,5.5715,0.4499,12.6624
67.2,0.0038,5.6002,0.4517,12.7277
67.55,0.0038,5.6294,0.4514,12.794
67.9,0.0038,5.659,0.4532,12.8613
68.25,0.0038,5.6881,0.4545,12.9276
68.6,0.0038,5.7169,0.4545,12.9929
68.95,0.0038,5.7458,0.4554,13.0587
69.3,0.0038,5.7754,0.4572,13.1259
69.65,0.0038,5.8048,0.4579,13.1927
70,0.0038,5.8337,0.4583,13.2585
70.35,0.0038,5.8629,0.4605,13.3248
70.7,0.0038,5.8921,0.4603,13.3911
71.05,0.0038,5.9217,0.4614,13.4583
71.4,0.0039,5.95,0.4626,13.5227
71.75,0.0039,5.9792,0.4635,13.589
72.1,0.0039,6.0092,0.4639,13.6572
72.45,0.0039,6.0381,0.4659,13.723
72.8,0.0039,6.0665,0.4659,13.7874
73.15,0.0039,6.096,0.4665,13.8546
73.5,0.0039,6.126,0.4681,13.9228
73.85,0.0039,6.1544,0.4691,13.9872
74.2,0.0039,6.1831,0.469,14.0526
74.55,0.0039,6.2133,0.4708,14.1212
74.9,0.0039,6.2425,0.4723,14.1875
75.25,0.0039,6.2708,0.4715,14.2519
75.6,0.0039,6.3004,0.4734,14.3191
75.95,0.004,6.33,0.4746,14.3864
76.3,0.004,6.3587,0.4744,14.4517
76.65,0.004,6.3875,0.4751,14.517
77,0.004,6.4173,0.4773,14.5848
77.35,0.004,6.4465,0.477,14.651
77.7,0.004,6.4752,0.478,14.7164
78.05,0.004,6.5044,0.479,14.7827
78.4,0.004,6.5335,0.4795,14.849
78.75,0.004,6.5629,0.4807,14.9157
79.1,0.004,6.5921,0.4818,14.982
79.45,0.004,6.6208,0.4815,15.0473
79.8,0.004,6.6504,0.4831,15.1146
80.15,0.004,6.6798,0.4847,15.1813
80.5,0.004,6.7087,0.4843,15.2472
80.85,0.004,6.7377,0.4851,15.313
81.2,0.0041,6.7669,0.4865,15.3793
81.55,0.0041,6.7965,0.4867,15.4465
81.9,0.0041,6.8252,0.4871,15.5118
82.25,0.0041,6.8542,0.4888,15.5777
82.6,0.0041,6.884,0.4887,15.6454
82.95,0.0041,6.9135,0.4902,15.7126
83.3,0.0041,6.9417,0.4908,15.7765
83.65,0.0041,6.9708,0.491,15.8428
84,0.0041,7.0008,0.4922,15.911
84.35,0.0041,7.0296,0.4939,15.9763
84.7,0.0041,7.0581,0.4931,16.0412
85.05,0.0041,7.0881,0.4948,16.1094
85.4,0.0041,7.1177,0.4962,16.1766
85.75,0.0041,7.146,0.4954,16.241
86.1,0.0041,7.175,0.496,16.3068
86.45,0.0041,7.2046,0.4978,16.3741
86.8,0.0041,7.234,0.4975,16.4408
87.15,0.0042,7.2627,0.4984,16.5062
87.5,0.0042,7.2919,0.4999,16.5724
87.85,0.0042,7.3215,0.5002,16.6397
88.2,0.0042,7.3506,0.5012,16.706
88.55,0.0042,7.3794,0.5021,16.7713
88.9,0.0042,7.4083,0.502,16.8371
89.25,0.0042,7.4379,0.5033,16.9044
89.6,0.0042,7.4675,0.5048,16.9716
89.95,0.0042,7.496,0.5036,17.0365
90.3,0.0042,7.5252,0.5054,17.1027
90.65,0.0042,7.5548,0.506,17.17
91,0.0042,7.584,0.5061,17.2363
91.35,0.0042,7.6121,0.5069,17.3002
91.7,0.0042,7.6419,0.508,17.3679
92.05,0.0042,7.6719,0.5083,17.4361
92.4,0.0042,7.7004,0.5096,17.5009
92.75,0.0042,7.729,0.509,17.5658
93.1,0.0042,7.759,0.5101,17.634
93.45,0.0043,7.7885,0.5118,17.7012
93.8,0.0043,7.8165,0.5108,17.7647
94.15,0.0043,7.8458,0.5115,17.8314
94.5,0.0043,7.876,0.5132,17.9001
94.85,0.0043,7.905,0.5126,17.9659
95.2,0.0043,7.9331,0.5125,18.0298
95.55,0.0043,7.9631,0.5142,18.098
95.9,0.0043,7.9923,0.5131,18.1643
96.25,0.0043,8.021,0.5143,18.2296
96.6,0.0043,8.05,0.5142,18.2955
96.95,0.0043,8.0796,0.5136,18.3627
97.3,0.0043,8.109,0.5138,18.4294
97.65,0.0043,8.1377,0.5139,18.4948
98,0.0043,8.1669,0.5124,18.5611
98.35,0.0043,8.1962,0.5134,18.6278
98.7,0.0043,8.2254,0.5123,18.6941
99.05,0.0043,8.2544,0.5107,18.7599
99.4,0.0043,8.2835,0.5104,18.8262
99.75,0.0042,8.3131,0.507,18.8935
100.1,0.0042,8.3425,0.5029,18.9602
100.45,0.0041,8.371,0.4978,19.0251
100.8,0.0041,8.4002,0.4889,19.0914
101.15,0.004,8.4296,0.477,19.1581
101.5,0.0037,8.459,0.4447,19.2249
101.85,0,8.4875,-0.0021,19.2898
102.2,0,8.5167,-0.0017,19.3561
102.55,0,8.5469,-0.0009,19.4247
102.9,0,8.5754,-0.0017,19.4896
103.25,0,8.604,-0.0012,19.5544
103.6,0,8.6337,-0.0011,19.6222
103.95,0,8.6633,-0.0019,19.6894
104.3,0,8.6917,-0.0007,19.7538
104.65,0,8.7208,-0.0016,19.8201
104.912,0,8.7437,-0.0023,19.8722